File: eda/visualizations/concrete_correlation_matrix.csv
,Cement (component 1)(kg in a m^3 mixture),Blast Furnace Slag (component 2)(kg in a m^3 mixture),Fly Ash (component 3)(kg in a m^3 mixture),Water  (component 4)(kg in a m^3 mixture),Superplasticizer (component 5)(kg in a m^3 mixture),Coarse Aggregate  (component 6)(kg in a m^3 mixture),Fine Aggregate (component 7)(kg in a m^3 mixture),Age (day),"Concrete compressive strength(MPa, megapascals) "
Cement (component 1)(kg in a m^3 mixture),1.0,-0.275193,-0.397475,-0.0815436,0.0927714,-0.109356,-0.22272,0.0819473,0.497833
Blast Furnace Slag (component 2)(kg in a m^3 mixture),-0.275193,1.0,-0.323569,0.107286,0.0433757,-0.283998,-0.281593,-0.0442458,0.134824
Fly Ash (component 3)(kg in a m^3 mixture),-0.397475,-0.323569,1.0,-0.257044,0.37734,-0.00997679,0.0790764,-0.15437,-0.105753
Water  (component 4)(kg in a m^3 mixture),-0.0815436,0.107286,-0.257044,1.0,-0.657464,-0.182312,-0.450635,0.277604,-0.289613
Superplasticizer (component 5)(kg in a m^3 mixture),0.0927714,0.0433757,0.37734,-0.657464,1.0,-0.266303,0.222501,-0.192717,0.366102
Coarse Aggregate  (component 6)(kg in a m^3 mixture),-0.109356,-0.283998,-0.00997679,-0.182312,-0.266303,1.0,-0.178506,-0.00301551,-0.164928
Fine Aggregate (component 7)(kg in a m^3 mixture),-0.22272,-0.281593,0.0790764,-0.450635,0.222501,-0.178506,1.0,-0.156094,-0.167249
Age (day),0.0819473,-0.0442458,-0.15437,0.277604,-0.192717,-0.00301551,-0.156094,1.0,0.328877
"Concrete compressive strength(MPa, megapascals) ",0.497833,0.134824,-0.105753,-0.289613,0.366102,-0.164928,-0.167249,0.328877,1.0